Wavenumber	B4C	Si	SiB6	SiC	SiBC
2699.163086	83997.71094	4896.422852	11705.20801	1171746.25	2620.398859
2696.943359	84296.19531	4797.300781	11682.68066	1169638.875	2608.925203
2694.723633	83852	4920.917969	11687.21191	1166987	2615.796336
2692.50293	83770.53125	4878.979492	11665.84766	1164378.375	2600.659118
2690.28125	83942.32031	4921.471191	11677.13086	1163963.25	2606.547994
2688.05957	83793.35938	4884.056641	11651.28027	1157295.25	2608.158799
2685.836914	83587.11719	4913.024414	11609.69629	1158665	2607.969713
2683.613281	83782.40625	4959.966797	11757.04004	1158658.75	2614.224036
2681.388672	83133.36719	4832.641602	11643.50586	1154389.875	2611.20668
2679.164063	83617.47656	4837.998535	11736.81152	1156372.625	2604.34972
2676.939453	83773.25	4836.61084	11688.50684	1153889.5	2608.028374
2674.712891	83832.33594	4841.962891	11652.58398	1151993	2601.083981
2672.486328	83395.10156	4845.065918	11677.3125	1145306.375	2600.108181
2670.259766	83015.35156	4834.696289	11554.97949	1144169.75	2612.683336
2668.032227	83208.13281	4896.152832	11505.65723	1139654.75	2601.385854
2665.803711	82919.51563	4882.408203	11584.25293	1141490.875	2607.665784
2663.574219	83376.875	4943.81543	11434.01074	1141316.125	2610.451302
2661.344727	82683.60156	4902.033691	11567.51953	1137061.25	2608.957534
2659.114258	83119.46094	4923.046387	11516.00488	1137192.625	2594.441507
2656.882813	83239.0625	4898.102051	11489.1709	1136537.125	2610.587305
2654.651367	82883.60156	4986.319336	11601.26172	1133224.625	2608.50861
2652.418945	83199.17969	4850.496094	11640.49316	1134234.75	2604.843395
2650.186523	83108.14844	4911.804688	11634.91699	1132011.75	2616.162168
2647.953125	82916.42969	4907.038574	11543.15723	1129368.125	2609.056088
2645.71875	82501.02344	4959.343262	11487.25684	1124945.5	2608.763273
2643.483398	83010.96094	4940.022461	11489.55762	1126467.75	2610.606374
2641.248047	82481.67969	4947.553223	11591.38574	1121503.75	2597.181841
2639.011719	82485.98438	4936.072754	11658.49707	1120678	2603.743266
2636.775391	82472.39844	4972.659668	11566.85742	1116107.375	2599.228048
2634.538086	82220.82031	5020.398926	11640.63965	1117486.875	2603.901891
2632.299805	82286.60938	4931.829102	11593.73828	1113630	2593.097427
2630.060547	81888.92188	4954.983887	11531.22949	1111734	2604.047741
2627.821289	82181.39063	4944.631836	11312.45898	1109139	2602.32996
2625.582031	82031.71875	4991.207031	11520.15527	1108712.75	2585.230185
2623.34082	82233.58594	5083.501953	11494.53809	1107850.5	2601.443515
2621.099609	82439.79688	4977.191406	11557.05371	1106449.875	2604.229775
2618.857422	81855.25781	4955.692383	11409.89063	1103233.375	2603.37289
2616.615234	81613.29688	5081.361816	11314.0918	1100100.125	2596.973951
2614.37207	81922.02344	4979.599609	11393.32031	1100578.25	2601.541363
2612.12793	81993.24219	4910.20752	11485.87207	1099554.25	2590.993038
2609.883789	82204.75781	5061.399414	11372.31055	1096121.375	2592.083867
2607.638672	81375.00781	4957.502441	11524.94336	1093039	2597.14359
2605.392578	81714.58594	5044.026367	11467.09375	1090568.375	2591.424737
2603.146484	81637.75	4935.741699	11425.96875	1089229.625	2584.551419
2600.899414	81291.70313	4987.730957	11365.95313	1087808.25	2588.144277
2598.651367	81500.86719	5065.272461	11391.61328	1085632.375	2590.561255
2596.40332	81301.82031	4940.394531	11425.04199	1083119.5	2582.662857
2594.154297	81152.90625	4994.560059	11479.57031	1082327.75	2586.523993
2591.904297	81074.07813	5008.687012	11428.49512	1079848.375	2580.260416
2589.654297	80722	4995.030273	11357.4502	1075983.75	2576.46777
2587.40332	81050.9375	5001.373047	11350.86328	1073536.125	2578.744992
2585.152344	80820.07031	5086.547852	11233.24512	1072102.625	2574.272957
2582.899414	80674.80469	4974.085938	11453.13867	1071273.625	2572.458734
2580.646484	81127.74219	4932.709961	11352.20215	1070354	2581.489646
2578.393555	80745.04688	5008.95459	11348.94824	1065958	2573.774537
2576.138672	80439.09375	4988.664551	11307.98731	1066294.625	2570.538465
2573.884766	80562.39063	5023.82373	11356.85742	1063451.125	2574.719271
2571.628906	80265.51563	5048.986328	11310.37305	1062922.375	2575.229441
2569.373047	79871.29688	5008.754883	11355.8877	1057559.125	2568.776961
2567.116211	80410.04688	5038.337891	11390.29785	1056976.875	2561.468627
2564.858398	80436.83594	4977.088867	11249.70606	1056247.5	2559.469003
2562.600586	80119.27344	5003.341309	11229.87402	1052828.125	2554.140008
2560.341797	80032.10938	5014.083008	11226.6543	1050284.875	2570.130103
2558.083008	79889.66406	5025.923828	11131.5957	1048192.375	2554.682481
2555.822266	79853.49219	5012.314941	11296.54688	1046855.438	2555.021899
2553.561523	80006.4375	4964.429688	11296.62598	1045881.813	2554.713348
2551.300781	79663.99219	5054.770508	11342.0332	1041936.938	2548.905518
2549.039063	79585.89063	5051.11084	11211.67773	1041479.063	2552.704896
2546.776367	79589.59375	5012.094238	11226.14258	1039513.125	2543.224744
2544.512695	79427.59375	5025.018066	11197.51758	1038888.188	2553.60645
2542.249023	79397.09375	5024.681641	11188.78613	1035408.813	2545.495528
2539.984375	79662.46875	5058.569336	11244.08887	1037332.063	2537.585642
2537.719727	79545.8125	5027.319336	11206.65137	1034009.5	2541.974959
2535.453125	79121.39063	5029.187988	11237.64258	1029411.063	2541.692838
2533.1875	79035.82813	5075.177734	11067.86231	1028480.563	2531.924227
2530.919922	79165.34375	5046.153809	11269.79395	1026804	2531.645686
2528.652344	78675.22656	5045.809082	11129.86523	1023098.75	2533.036612
2526.383789	79033.98438	5090.651367	11318.43652	1026360.688	2535.898075
2524.114258	79124.80469	5103.514648	11200.60645	1023423.25	2536.542323
2521.844727	78639.50781	5027.150879	11175.36621	1018773.5	2527.883779
2519.574219	78551.98438	5067.553223	11172.16113	1018153.188	2531.12056
2517.303711	78414.97656	4949.410156	11099.60547	1012442.938	2530.043357
2515.032227	78399.08594	5102.06543	11094.2207	1012186.75	2529.643692
2512.759766	78283.08594	5097.30127	11098.74023	1011476.188	2530.599364
2510.486328	78419.01563	5044.144043	11247.34082	1010166.5	2523.805011
2508.212891	78740.6875	5122.967285	11081.37988	1010457.313	2530.960624
2505.938477	78500.45313	5169.865723	11107.88086	1007121.5	2519.899756
2503.664063	78068.03906	5102.445313	11004.69238	1005730.375	2529.562132
2501.387695	78479.59375	5167.999023	11217.96289	1008275.188	2520.1826
2499.112305	77916.71875	5158.828125	11099.42285	1002273.75	2529.424881
2496.834961	78135.92188	5169.42627	11038.0459	1002378.188	2534.424094
2494.557617	77913.73438	5127.328613	11149.03711	999721.875	2528.59443
2492.279297	77938.57031	5181.824219	11200.70606	998773.375	2518.202434
2490	77816.375	5088.184082	11089.98242	997011.25	2512.391474
2487.720703	77932.23438	5190.915527	11092.28418	994489	2525.030473
2485.44043	77303.5625	5220.125977	10956.43652	990442.9375	2513.357966
2483.160156	78100.16406	5116.688965	11085.91992	990439.375	2517.079798
2480.87793	77979.13281	5152.478516	11002.74707	989173.375	2516.177921
2478.59668	77716.85156	5136.758301	11148.57324	987276.9375	2524.838641
2476.313477	77478.79688	5146.236328	11077.47461	984434.25	2520.641299
2474.030273	77305.47656	5227.96875	11125.75293	983746.6875	2514.4922
2471.746094	77385.07813	5171.740723	11114.89746	982257.0625	2517.517748
2469.460938	77292.84375	5209.648926	11027.45313	980742	2517.081395
2467.175781	77572.57031	5181.899414	11010.06738	978980.4375	2516.872315
2464.889648	77005.70313	5236.186035	10941.29199	977376.1875	2511.803342
2462.602539	77048.10156	5206.257324	10964.38965	973564.375	2510.228652
2460.31543	77105.76563	5179.624512	11090.21094	970823.5625	2509.529731
2458.027344	76998.40625	5236.048828	11053.15527	972672.1875	2506.945248
2455.739258	77096.45313	5274.962402	11083.84375	968405.9375	2498.968966
2453.449219	76663.71875	5206.833496	10971.46094	965531.125	2501.648886
2451.15918	76390.61719	5261.016602	11092.76367	962412.1875	2505.001763
2448.869141	76485.46094	5189.655762	11100.49219	963703.0625	2500.268035
2446.577148	76521.32031	5269.997559	10999.1084	957655.625	2499.756957
2444.285156	76886.57031	5144.134766	10992.67773	961167.75	2499.930679
2441.993164	76624.58594	5212.447754	11012.41992	958023.8125	2485.483433
2439.699219	76441.24219	5144.450684	10862.08887	953915.75	2482.625467
2437.405273	75997.52344	5231.250488	11032.25	950667.625	2489.031495
2435.111328	75596.54688	5240.643066	10956.08398	948762.5	2489.718068
2432.81543	76165.17188	5227.15625	11046.60742	946953.0625	2470.675701
2430.519531	76422.04688	5101.519531	10990.0791	946156.1875	2481.55461
2428.223633	75942.89063	5175.166992	10927.05078	944118.6875	2466.837245
2425.925781	75367.14844	5271.625	10997.91211	941318.3125	2468.713827
2423.62793	75734.97656	5264.67041	10922.94824	941433	2471.990336
2421.329102	75754.54688	5192.460449	10930.68555	939164.5	2468.344066
2419.030273	75697.98438	5220.326172	11018.87891	939556.8125	2460.335578
2416.730469	75891.45313	5211.216797	10991.79785	935879	2459.73748
2414.429688	75369.76563	5212.979004	10886.49023	933147.5625	2457.405344
2412.128906	75336.14844	5261.455566	10860.54688	931927.6875	2446.53297
2409.827148	75368.79688	5295.78418	10938.87988	929412.75	2441.089764
2407.524414	75189.69531	5260.602539	10972.65137	929341	2445.550741
2405.220703	75233.20313	5220.013184	10878.31934	927231.8125	2435.852345
2402.917969	74800.3125	5228.278809	10924.02246	923142.3125	2435.95722
2400.613281	74991.42969	5217.012207	10949.08691	922384.375	2429.721335
2398.306641	74878.76563	5281.668457	10971.9668	920710.375	2413.025593
2396.001953	74568.83594	5319.181641	11029.52637	917704.75	2413.184536
2393.695313	74540.89063	5235.274902	10885.44922	917832.125	2406.525949
2391.388672	74334.15625	5139.496094	10931.0791	915290.4375	2403.408103
2389.080078	74390.77344	5231.180176	10854.27344	912887.75	2394.947258
2386.771484	74202.60156	5210.182129	10947.53418	906764.1875	2390.410227
2384.462891	74334.98438	5226.005859	10960.62402	907743	2377.2276
2382.152344	74346.07031	5214.76123	10935.82422	903711	2383.378865
2379.841797	74167.78906	5164.568848	10861.26465	904225.6875	2375.75615
2377.53125	74067.47656	5244.212402	10929.53125	902858.9375	2369.373258
2375.21875	74263.52344	5207.016602	10952.33984	901054.875	2365.931951
2372.90625	74361.07031	5289.844238	10894.05273	901504.75	2363.859029
2370.59375	73716.0625	5218.070313	11013.04395	898995.125	2358.57039
2368.279297	74155.125	5220.890137	10951.5293	895098.4375	2354.416806
2365.964844	73688.75781	5210.746094	10960.25879	891543.125	2350.034409
2363.650391	73396.5	5217.884766	10924.70801	888406.5	2347.372594
2361.333984	73643.09375	5193.711914	11038.15137	889155.75	2335.602506
2359.017578	73169.69531	5191.137207	10810.49609	888214.4375	2334.739234
2356.701172	73237.09375	5174.537598	10947.64063	883895.5	2328.314067
2354.382813	73521.25	5250.70752	11122.45606	883278.5625	2330.38225
2352.064453	73900.11719	5245.960449	10956.43262	884513.25	2323.696854
2349.744141	73510.16406	5205.641602	10999.62891	880937.25	2324.086649
2347.425781	73500.84375	5311.910645	10916.71387	878085.25	2317.515519
2345.103516	73575.55469	5175.708496	10860.77832	879302.875	2307.833818
2342.783203	73617.89844	5245.303711	10837.18555	875769.9375	2310.444324
2340.460938	73078.78125	5281.478516	10892.20606	872293.875	2306.051172
2338.138672	72831.67188	5163.700684	10998.86231	870735.75	2304.111705
2335.816406	73158.26563	5273.054199	10790.15527	868255.125	2299.502505
2333.492188	73008.08594	5273.686035	10943.03711	864891.5	2304.291383
2331.167969	73270.96875	5419.51123	11116.2627	864214.125	2306.302692
2328.841797	73414.35156	5541.597656	11159.29102	861913.5625	2315.603286
2326.515625	73030.95313	5571.171875	11098.03027	861618.875	2340.075531
2324.189453	72682.15625	5404.07959	11163.60254	859920.875	2334.170586
2321.863281	72946.94531	5306.911133	10795.13867	859907.0625	2301.825513
2319.535156	72915.17188	5266.717773	10889.75391	855365.5	2283.587794
2317.207031	73044.45313	5321.028809	10901.64453	855458.0625	2285.626578
2314.876953	72527.50781	5230.406738	10873.81348	853533.6875	2277.042889
2312.546875	73021.63281	5249.285645	10926.47266	852571.8125	2283.215789
2310.216797	72576.85156	5277.807617	10860.03125	848177.6875	2279.304229
2307.884766	72371.45313	5291.29834	10804.35059	845570.5	2279.720972
2305.552734	72350.57031	5287.627441	10744.41309	844263	2273.57705
2303.220703	72236.44531	5238.942383	10877.42773	843895	2276.696927
2300.886719	72809.19531	5312.43457	10715.71094	842281.0625	2277.82023
2298.552734	72271.88281	5286.26416	10779.03027	839684.625	2272.011432
2296.21875	72307.77344	5314.722168	10726.65918	838329.625	2272.885483
2293.882813	71963.59375	5265.012695	10686.09375	835581.4375	2269.268269
2291.546875	72241.40625	5313.794434	10582.40723	834326.6875	2264.797287
2289.210938	72071.82813	5242.713867	10799.75391	831469.8125	2270.175323
2286.873047	72147.28125	5239.060547	10675.76953	827687.125	2267.99627
2284.535156	72074.04688	5310.26123	10658.78516	829326.8125	2266.325222
2282.197266	72234.95313	5299.106445	10731.60449	824811.3125	2258.219002
2279.857422	71980.04688	5334.97998	10595.98731	824577.3125	2258.01873
2277.517578	71865.23438	5390.063965	10731.81445	822364.6875	2259.827381
2275.177734	72209.74219	5265.67627	10699.87598	819398.1875	2261.663118
2272.835938	71777.78906	5342.102539	10632.71875	818521.8125	2255.275381
2270.494141	71725.02344	5183.640137	10582.67773	815125.5625	2260.648197
2268.150391	72135.41406	5331.544434	10563.61133	816155.625	2262.401938
2265.808594	72152.96875	5295.864258	10664.04102	813710.25	2261.194065
2263.462891	72049.98438	5332.728516	10536.17481	810361.8125	2258.091544
2261.119141	71850.02344	5406.889648	10472.35352	807696.5625	2258.305587
2258.773438	71869.75	5389.336914	10693.16504	807718.75	2256.382305
2256.427734	71876.67188	5378.187988	10530.2334	806128.6875	2271.313899
2254.080078	71656.67188	5379.828125	10485.64063	803588.0625	2268.102972
2251.732422	71842.55469	5407.026855	10523.07715	802782.6875	2265.173786
2249.384766	72174.17188	5368.198242	10617.98242	803081.6875	2262.195449
2247.035156	71989.375	5345.356934	10746.8916	798310.875	2271.168328
2244.6875	71728.07031	5442.769531	10434.14063	794844	2269.573395
2242.335938	71861.55469	5431.620605	10520.47559	794408.6875	2270.537069
2239.986328	71897.10938	5298.178711	10636.53613	793710.8125	2269.263376
2237.634766	72148.46094	5263.687012	10628.1416	794054.0625	2275.080855
2235.28125	72028.72656	5354.631348	10476.26856	790296.6875	2279.16033
2232.929688	72192.75	5382.831543	10550.79883	789497.25	2278.315838
2230.576172	71980.64844	5268.67627	10619.97363	787383.1875	2284.12114
2228.220703	72049	5326.618164	10487.3457	786535	2289.255659
2225.865234	72175.6875	5386.648926	10622.31543	785932.4375	2296.364727
2223.509766	72335.20313	5321.409668	10481.27051	784718.8125	2302.694238
2221.154297	72569.9375	5497.055664	10701.03906	783184.3125	2307.652865
2218.796875	72353.74219	5430.760254	10655.51172	780344.9375	2314.754051
2216.439453	72570.29688	5476.903809	10566.53418	780780.4375	2315.45273
2214.082031	72347.85156	5433.973145	10587.85254	776353.125	2325.744665
2211.722656	72190.17188	5434.517578	10488.3457	775203.9375	2316.99779
2209.363281	72272.00781	5541.007324	10588.07129	773518.25	2331.01873
2207.001953	72494.65625	5474.791992	10554.28613	771744.4375	2336.511006
2204.640625	72352.92188	5465.79248	10414.63672	771860.5	2333.016963
2202.279297	72535.17188	5381.640625	10585.21289	769199.9375	2331.609519
2199.916016	72328.94531	5454.15625	10601.19043	767891.0625	2353.741462
2197.552734	72538.58594	5466.327148	10679.57422	767476.8125	2357.160502
2195.189453	72774.53906	5532.429199	10584.46387	765273.25	2358.436695
2192.824219	72769.28125	5361.652832	10596.19434	761856.0625	2366.556628
2190.458984	72558.96094	5591.582031	10630.11426	761841.0625	2375.239248
2188.09375	72363.54688	5443.077148	10651.33203	759708.375	2370.964942
2185.726563	72530.57031	5493.260254	10506.68555	758354.3125	2372.210726
2183.359375	72855.89844	5453.646484	10633.53125	759231.375	2386.878429
2180.992188	72372.32031	5538.636719	10641.00098	755937.625	2386.510038
2178.623047	72682.71875	5510.641602	10602.02539	753706.375	2386.735799
2176.253906	72805.10156	5504.820313	10631.65527	751993.375	2396.310731
2173.884766	72502.3125	5554.90918	10635.95117	749718	2400.210335
2171.513672	72444.33594	5556.458984	10763.62305	747746.4375	2401.349932
2169.142578	72483.375	5503.186035	10627.66211	746152.375	2414.506912
2166.769531	72793.24219	5540.58252	10751.04395	747680.8125	2413.059775
2164.396484	72165.20313	5505.255859	10763.72363	742558.875	2408.819517
2162.023438	72175.82031	5554.215332	10711.08887	743123.5625	2419.708057
2159.650391	72272.77344	5554.706543	10795.37402	739741.125	2421.339777
2157.275391	72361.24219	5560.460449	10729.07324	739669.125	2429.591116
2154.898438	72224.42969	5616.726074	10703.85254	736592.5625	2425.102357
2152.523438	72067.70313	5555.12207	10744.92676	736636.125	2431.771682
2150.146484	72126.67188	5608.199707	10601.91406	733486.3125	2426.878364
2147.767578	72070.99219	5626.546387	10743.93262	731257.1875	2438.034991
2145.390625	71943.85156	5580.759277	10704.01563	728291.4375	2437.855701
2143.011719	71508.875	5643.23877	10816.49512	729478.125	2435.917397
2140.630859	71712.875	5570.157227	10798.63867	726903.125	2434.139767
2138.25	71460.94531	5606.345215	10746.13281	724354.6875	2440.799652
2135.869141	71524.13281	5552.214355	10737.75488	722912.1875	2433.24668
2133.488281	71262.9375	5617.775879	10772.41406	721475.6875	2438.184921
2131.105469	71147.74219	5650.768555	10718.90918	719927.6875	2440.837411
2128.722656	70836.4375	5563.100586	10828.03223	718288.125	2432.552273
2126.337891	70835.72656	5641.184082	10728.39551	714758.625	2440.085697
2123.953125	70927.26563	5705.591797	10714.78516	713904.5625	2433.191171
2121.568359	70702.21875	5632.65625	10878.31152	711714.5	2422.363155
2119.183594	70345.26563	5644.63623	10794.45996	711136.1875	2433.095105
2116.796875	70216.86719	5570.711914	10805.97852	708645.3125	2435.509335
2114.408203	70244.5625	5642.392578	10937.91602	707063.75	2429.104033
2112.021484	69866.04688	5627.137695	10846.78809	706312.125	2427.869269
2109.632813	69574.60156	5688.29248	10799.66797	704790.5625	2421.452298
2107.242188	69813.78125	5625.948242	10940.9043	704225.0625	2425.550254
2104.851563	69461.84375	5688.112305	10837.29883	701451.75	2430.63927
2102.460938	69430.07813	5697.955566	10917.79004	700231.75	2421.43797
2100.070313	68889.22656	5648.205078	10867.5625	698073.625	2415.753466
2097.677734	69244.28906	5629.834961	10852.89453	694587.375	2422.279608
2095.285156	68724.6875	5632.370605	10782.86328	693966.6875	2411.287913
2092.890625	68385.02344	5664.149414	10777.62598	692863.75	2414.337308
2090.496094	68395.33594	5635.347168	10751.50781	689041.4375	2407.497946
2088.101563	68332.5625	5622.21875	10818.30469	691761.875	2410.042219
2085.707031	68430.51563	5749.977051	10736.87988	688778.8125	2405.624697
2083.310547	68340.63281	5683.615723	10959.0791	688100.8125	2398.622422
2080.912109	68323.78906	5642.323242	10845.32813	687483.625	2399.253139
2078.515625	67880.52344	5712.616699	10825.47656	685247.5625	2390.0136
2076.117188	67576.13281	5769.317383	10848.37012	684039.3125	2379.151074
2073.716797	67599.10156	5739.496094	10897.29883	682882.8125	2383.03105
2071.316406	67262.65625	5744.068359	10718.06543	679487.1875	2389.961559
2068.916016	67213.82813	5734.057129	10815.94629	681407.75	2375.401758
2066.515625	66735.04688	5710.516602	10903.35742	676448.5625	2378.20217
2064.113281	66556.28125	5677.62207	10698.25586	676332.9375	2368.868128
2061.710938	66653.34375	5724.864746	10806.45703	675919.625	2360.013614
2059.306641	66559.99219	5652.455566	10818.89746	675207	2350.847592
2056.902344	66299.25781	5841.102539	10776.21582	671003.75	2346.335557
2054.498047	66201.88281	5712.5625	10834.39648	670014.1875	2348.083935
2052.091797	65830.1875	5761.81543	10831.22461	668188.4375	2341.384506
2049.685547	66152.73438	5841.168945	10771.94922	668193.3125	2334.330896
2047.279297	65551.71094	5909.049805	10608.84082	666182.0625	2325.881504
2044.871094	65172.20313	5816.980469	10661.80469	664685.875	2317.119472
2042.462891	65540.29688	5844.342285	10714.73535	662991.125	2311.029555
2040.054688	65624.86719	5741.966309	10765.55859	660940.375	2303.805909
2037.644531	65317.23047	5867.891602	10818.42578	659678.0625	2301.293167
2035.234375	64941.30859	5770.75293	10694.94727	658124	2297.580585
2032.822266	65094.38672	5927.700195	10846.29981	658433.9375	2296.287953
2030.410156	65078.41016	5771.516113	10818.24219	656335.75	2272.67009
2027.998047	64889.38281	5851.687012	10820.25098	653813.8125	2273.530405
2025.585938	64699.42578	5902.803711	10565.34863	653260.5	2275.371421
2023.171875	64612.09375	5760.225098	10708.27148	650220.9375	2265.681577
2020.755859	64557.93359	5880.70459	10783.81348	650705.1875	2252.359037
2018.341797	64695.27734	5762.02002	10877.93945	646645.375	2248.391271
2015.923828	64415.54297	5802.75293	10618.13965	645581.25	2240.498703
2013.507813	64210.4375	5788.63623	10667.77734	644642.8125	2244.3561
2011.089844	64530.76953	5892.416992	10544.68945	642617	2231.676589
2008.671875	64055.91797	5810.048828	10721.47266	641561.9375	2233.938384
2006.253906	64007.12891	5855.883789	10826.83984	639684.8125	2224.313454
2003.833984	64080.28125	5876.894531	10552.96484	636358.0625	2220.974724
2001.412109	64038.73047	5839.015625	10721.32324	635664.9375	2212.783461
1998.992188	63695.67969	5953.983887	10625.24023	633535.875	2218.215719
1996.570313	63687.28125	5918.167969	10705.73145	631959.1875	2213.290775
1994.146484	63926.55078	5914.364258	10675.75293	632045.8125	2210.997395
1991.724609	63765.38672	5958.02002	10584.92188	629832.75	2208.79105
1989.300781	63901.33984	5873.756836	10665.34961	629260.8125	2207.051158
1986.875	63344.32813	5910.179199	10744.69727	627645.625	2197.775814
1984.449219	63459.69141	5928.025391	10663.19922	626218.9375	2204.176059
1982.023438	63106.12109	5804.68457	10558.04688	622482.6875	2199.712061
1979.597656	62994.83594	6047.12793	10716.67285	620459.625	2201.40809
1977.169922	62971.14453	6025.780273	10588.90723	619242	2187.705729
1974.742188	63015.41016	5983.853027	10706.24609	617484.5	2193.829659
1972.3125	62678.81641	5980.032715	10640.31055	615592.0625	2190.862706
1969.882813	62648.01172	6010.169434	10709.20215	613981.5625	2193.398591
1967.453125	62324.05078	6034.115723	10641.24414	611433.8125	2185.989802
1965.021484	62724.22266	5994.288574	10623.71191	612196.6875	2197.886427
1962.589844	62500.13281	5929.811035	10722.35645	610347.8125	2196.995165
1960.15625	62552.62891	5977.395508	10699.66992	607087.8125	2192.018407
1957.722656	62399.59375	5996.182617	10699.59766	605566	2193.055575
1955.289063	62212.75	5996.469238	10697.4707	604655.125	2197.502953
1952.855469	62078.375	6146.67334	10731.28125	602996.1875	2205.849339
1950.419922	61950.22656	5986.773438	10640.86231	601232.375	2199.60313
1947.982422	61866.27344	5974.745117	10704.42773	600421.8125	2200.050876
1945.546875	61803.90625	6015.04541	10574.05664	597952.8125	2201.734725
1943.109375	61767.20703	6123.013184	10606.83203	596307.625	2209.846286
1940.669922	61623.89063	6091.471191	10668.2959	595498	2210.962903
1938.232422	61460.14844	6067.122559	10503.19629	593455.6875	2215.327471
1935.791016	61298.54297	6116.566895	10718.35547	592726.0625	2212.493084
1933.351563	61622.58984	6089.150391	10682.40918	591698.75	2215.346437
1930.910156	61651.49609	6048.435059	10582.98926	589556.6875	2224.960961
1928.46875	61213.52734	5988.291016	10580.88672	589523.8125	2231.109519
1926.025391	61408.32422	6171.776855	10713.88379	588056.9375	2233.186827
1923.582031	61166.09766	6156.651367	10703.55566	584451.375	2236.658512
1921.138672	61107.10156	6153.808594	10707.55176	584366.5625	2231.396846
1918.693359	60888.60547	6090.632813	10582.69824	583439.125	2239.261826
1916.248047	61142.52734	6162.4375	10804.4707	584028.1875	2238.212891
1913.800781	61063.125	6175.944824	10726.6709	582438	2245.299451
1911.355469	61411.83984	6207.833984	10727.58398	581552.5625	2248.349242
1908.90625	61091.34375	6169.227051	10745.8584	580715.5625	2250.173012
1906.458984	60309.50391	6246.025391	10635.46582	577978.75	2256.706679
1904.009766	60714.25	6247.23877	10720.10352	577033.9375	2256.998515
1901.560547	60459.52734	6270.901367	10651.62012	575897.75	2261.12979
1899.109375	60264.11719	6163.965332	10786.18848	573736.875	2255.288251
1896.658203	60523.67188	6160.100098	10636.13379	573356.875	2262.038505
1894.205078	60580.16797	6104.237305	10670.70703	571545.5	2263.897336
1891.751953	60353.27344	6300.168945	10577.85059	570132.6875	2264.021173
1889.298828	60432.1875	6193.347168	10628.7207	568767.5	2259.389898
1886.845703	60020.05469	6239.389648	10584.82422	567490.625	2265.445896
1884.390625	60112.24609	6255.870605	10602.05273	566392.625	2267.764304
1881.933594	60229.82031	6244.853027	10835.09668	565404.125	2263.933945
1879.478516	60262.84375	6145.294922	10765.72949	563248.75	2271.893244
1877.021484	59865.46094	6308.301758	10729.97754	561660.3125	2260.174799
1874.5625	59705.30078	6270.829102	10702.38281	560112.375	2262.000069
1872.105469	59823.83984	6180.501465	10645.31445	558182.9375	2271.981571
1869.644531	59663.76563	6219.329102	10622.83984	556679.5	2262.03669
1867.185547	59428.57813	6280.491211	10510.94922	556134.1875	2267.68915
1864.724609	59529.79688	6247.131348	10586.05566	553363.1875	2274.499393
1862.263672	59567.97656	6334.654297	10654.00586	551833.8125	2267.419496
1859.800781	59328.94141	6212.960449	10570.62988	550566.25	2263.223808
1857.337891	59192.55469	6234.460938	10492.37695	549734.75	2266.603149
1854.873047	58942.58984	6217.386719	10576.52539	548192.375	2262.063947
1852.410156	59094.48047	6272.348145	10661.63672	546515.9375	2261.719843
1849.943359	59097.19531	6353.643555	10835.93945	545091.875	2263.468434
1847.478516	58978.24219	6297.006836	10544.79102	541480.75	2261.842144
1845.011719	58356.64063	6305.269531	10586.25	537992.3125	2257.200393
1842.544922	58455.80078	6234.493164	10572.96875	539288.3125	2254.589497
1840.076172	58049.44922	6309.62207	10642.75293	535167.3125	2261.768294
1837.607422	57976.48047	6239.897461	10493.76953	534232.375	2251.583598
1835.138672	58122.20703	6329.150391	10480.52246	534115.875	2255.113393
1832.667969	58033.05078	6336.374512	10525.97949	533773.6875	2254.08239
1830.197266	58186.75	6358.769531	10399.41504	531771.4375	2254.149669
1827.724609	57662.69922	6328.555664	10495.43652	527989.125	2252.159111
1825.251953	57584.85547	6240.724121	10516.57715	526589.1875	2250.304621
1822.779297	57482.78906	6284.352051	10592.28711	525684.3125	2258.942044
1820.304688	57239.30469	6373.427246	10512.33106	524130.0938	2252.740333
1817.830078	57187.89844	6328.087402	10506.16699	522173.6875	2246.943124
1815.355469	57168.82813	6284.793457	10574.73828	521630.1875	2245.360615
1812.878906	57247.69141	6363.689941	10630.14258	520073.3125	2240.858125
1810.402344	56799.64453	6417.304688	10557.3291	518663.625	2241.010038
1807.923828	56559.71094	6408.327148	10635.90918	516210.4063	2238.794666
1805.445313	56686.07031	6349.926758	10615.58789	514084.3438	2243.26666
1802.966797	56441.25391	6388.368164	10510.57129	514923.1875	2244.392486
1800.486328	56151.21094	6450.981445	10474.16602	511766.3438	2230.947493
1798.005859	56234.21484	6334.163574	10472.04688	510597.6875	2232.594147
1795.523438	56125.74219	6389.700684	10611.98438	508677.0625	2239.00798
1793.042969	56001.20703	6487.506836	10566.5127	507068.7188	2235.566407
1790.558594	55977.42578	6424.146484	10487.83789	505676.7188	2225.559365
1788.076172	55532.89453	6388.001953	10430.34766	504184.8125	2224.284254
1785.591797	55630.01172	6546.097168	10608.36328	503806.7188	2224.921981
1783.105469	55753.21484	6448.568848	10413.04785	502266.8125	2226.479557
1780.621094	55309.12109	6449.657715	10487.37207	500784.0938	2219.510758
1778.132813	55535.88672	6333.111328	10486.24707	500043.1563	2217.400291
1775.646484	55146.38281	6394.539551	10570.55273	498512.5938	2218.08396
1773.158203	55201.22656	6623.733398	10570.4043	495995.125	2208.119155
1770.669922	55283.14453	6343.500977	10577.28613	495345.4688	2204.786822
1768.179688	54942.24609	6400.850586	10484.74707	494205.0625	2203.800092
1765.689453	54566.40234	6470.212402	10550.87695	493389.5	2206.825803
1763.199219	54664.47266	6489.350586	10614.95801	490859.25	2202.931075
1760.707031	54584.89063	6430.218262	10514.45898	489700.9063	2200.100982
1758.214844	54430.12891	6492.484375	10505.29102	488764.8438	2200.241685
1755.720703	54627.39063	6591.812988	10584.36426	488711.6563	2193.579972
1753.226563	54254.16797	6526.685547	10452.88672	488555.1563	2191.052414
1750.732422	53989.38672	6436.543457	10383.61523	485721.0938	2187.023772
1748.236328	54229.65625	6486.70752	10466.65527	485731.75	2188.623409
1745.740234	54122.25781	6501.788086	10425.45996	484259.125	2179.262825
1743.244141	53936.82422	6531.876465	10540.47266	483528.1563	2182.649251
1740.746094	53981.69531	6610.989746	10354.14844	480453.5	2184.527211
1738.246094	53629.30078	6516.950195	10434.08984	479821.0313	2176.06686
1735.748047	53754.24219	6523.99707	10472.96973	478049.5625	2169.849575
1733.248047	53374.10938	6535.038574	10409.82617	477836.0313	2168.28191
1730.746094	53193.13672	6677.033691	10489.67383	475961.0938	2170.412436
1728.246094	53008.26172	6694.01709	10420.56445	474981.6563	2170.578658
1725.742188	53109.23047	6649.044434	10317.52539	473718	2167.576539
1723.240234	52784.64844	6547.166016	10392.33008	473817.3438	2172.021092
1720.736328	52784.76172	6458.328613	10378.22363	472104.3438	2174.604603
1718.232422	52877.69531	6580.164551	10466.93652	470567.9688	2169.134353
1715.726563	52790.94531	6631.074707	10419.88281	470078.2188	2161.157515
1713.220703	52622.4375	6648.035156	10357.8916	469041	2149.00014
1710.712891	52231.63281	6546.304688	10379.70801	468031.2813	2145.862064
1708.205078	52356.49219	6524.39502	10379.57617	466715.0313	2133.972217
1705.697266	52067.64453	6557.316406	10240.90332	464899.1563	2132.616491
1703.1875	52133.67578	6578.259766	10214.9043	463311.4688	2122.971293
1700.677734	52037.29688	6532.450684	10223.78223	460667.8438	2115.705085
1698.167969	51946.94141	6641.018066	10241.61426	459170.875	2110.96114
1695.65625	51957.17969	6543.449219	10172.82813	457838.9688	2108.114926
1693.144531	51450.90234	6574.319824	10314.06445	454247.75	2104.991276
1690.630859	51629.39844	6541.496582	10313.94141	454093.9688	2091.907908
1688.117188	51615.82813	6591.244629	10281.98926	452851.125	2088.057361
1685.603516	51156.81641	6532.582031	10176.47852	450680.3125	2086.874856
1683.087891	51271.60156	6626.036621	10271.81445	449596.1563	2087.684679
1680.572266	50960.01953	6686.641602	10221.01953	447708.6875	2086.857344
1678.056641	50895.97266	6602.171875	10143.43262	444392.8125	2077.801255
1675.539063	51036.53125	6728.290527	10199.95703	443383.8125	2071.96523
1673.019531	50922.83984	6654.777832	10176.03027	441278.3438	2075.997675
1670.501953	50424.12891	6732.169434	10024.08594	439509.5313	2076.096004
1667.982422	50529.95313	6675.56543	10174.84766	438657.4688	2064.782319
1665.460938	50585.11328	6577.334473	10298.73633	436988.5938	2063.681207
1662.939453	50398.28906	6632.86084	10154.82031	436492.6563	2072.061385
1660.417969	50110.46094	6655.639648	10111.10938	433340.3438	2063.809829
1657.894531	50317.29688	6598.131836	10112.01758	432054.875	2062.035698
1655.371094	50249.58203	6656.570801	10140.66309	431790.5313	2062.080009
1652.847656	50031.35938	6685.260742	10226.73242	431172.7188	2063.434477
1650.322266	50223.15625	6609.971191	10206.80762	429908.6875	2057.052267
1647.796875	50088.20313	6680.228027	10148.29199	428296.9375	2057.754502
1645.269531	49898.89844	6742.524902	10087.83203	426830.5625	2053.203951
1642.742188	49779.93359	6758.290527	10005.64453	423823.8438	2054.423645
1640.214844	50006.15625	6676.143066	10112.38184	424626.125	2047.518355
1637.685547	49957.40625	6681.04248	10105.36621	422404.7188	2048.695147
1635.15625	49844.4375	6829.242676	10029.17285	422788.75	2057.495775
1632.625	49784.87891	6906.215332	10005.3877	421266.625	2051.252212
1630.095703	49691.76953	6801.400879	10131.74414	420910.8438	2050.454216
1627.5625	49770.51563	6714.422363	10089.17773	420737.875	2047.35264
1625.029297	49743.58594	6691.657715	10045.64941	419460.4063	2047.845947
1622.496094	49773.89844	6806.07373	10099.83789	417952.7188	2051.210598
1619.962891	49810.10156	6839.524414	10190.49219	418176.1875	2046.700709
1617.427734	49800.91406	6701.352051	10166.69141	416161.7813	2041.656795
1614.892578	49856.78906	6819.601074	10072.90527	415884.6875	2044.939721
1612.355469	49969.78906	6780.078613	10142.7832	414636.875	2049.046877
1609.818359	49703.37109	6908.083008	10068.76367	413274.5	2049.329439
1607.279297	50016.28906	6804.528809	10036.15625	411291.3438	2051.093105
1604.740234	50210.84375	6934.415527	10007.50684	410316.6563	2054.180021
1602.201172	50174.92188	6894.901367	10100.93945	410387.9375	2055.235462
1599.660156	50021.90625	6805.220215	10045.71289	408072.6563	2057.160764
1597.119141	50192.64453	6862.181641	10090.86719	406723.8438	2061.118264
1594.578125	50092.80859	6909.272461	10116.32227	404506.3438	2059.760168
1592.035156	50350.91406	6915.038086	10068.01953	403633.1875	2061.872179
1589.492188	50424.06641	6859.857422	10066.92383	403245.0938	2065.843879
1586.947266	50534.50391	6942.277344	10059.93262	402210.5938	2070.283649
1584.402344	50334.45703	6846.844238	10039.19043	400682.5625	2066.2395
1581.857422	50854.33984	6915.467285	10083.27246	400976.0313	2082.997089
1579.310547	50401.01953	6946.741699	10017.37402	399980.2813	2076.993663
1576.761719	50310.10938	6942.664551	10038.86035	397843.7188	2080.947199
1574.214844	50161.35938	6883.64502	9985.767578	396332.3438	2079.913892
1571.666016	50265.74219	6953.149414	10023.9209	395332.8438	2078.769581
1569.115234	49742.52344	6991.233887	10019.88672	393614.1563	2076.731902
1566.566406	49865.58203	6949.894043	9932.535156	392946.3125	2085.824715
1564.013672	49722.01563	6854.681641	9977.524414	391477.2188	2088.782275
1561.462891	49503.09766	6964.271484	10005.83106	389427.0625	2096.353308
1558.910156	49337.19141	7098.276855	10083.08398	389321.0625	2102.641272
1556.355469	49546.33984	7009.956543	10175.9541	388204.6875	2109.198941
1553.800781	48872.54688	7105.692871	10109.23242	386751.3125	2123.907132
1551.246094	48964.28516	6971.43457	10051.35645	386423.9375	2134.270469
1548.691406	48367.35547	6973.219727	9970.039063	385261.375	2143.475756
1546.134766	47834.34375	7020.961426	9950.373047	385177.0313	2143.803185
1543.576172	47886.21094	7056.942383	10047.04297	385134.6875	2148.773182
1541.017578	47455.28906	6983.448242	9969.705078	383056.75	2154.971331
1538.458984	47424.1875	6958.845215	9899.251953	382994.4688	2160.490734
1535.898438	46926.26172	7055.361328	9780.984375	381606.8438	2165.297963
1533.337891	46789.88281	6979.978516	9873.676758	380007.1875	2153.284801
1530.777344	46642.83984	7067.642578	9926.292969	378279.5938	2153.04937
1528.214844	46558.32422	7082.069336	9902.767578	378819.625	2148.538586
1525.652344	46250.48047	7095.51123	9857.794922	377294.2813	2138.34358
1523.087891	45936.96484	6940.240234	9946.443359	376571.375	2130.40821
1520.523438	46197.81641	7157.461426	9774.751953	375698.6875	2111.807819
1517.958984	45827.97266	7127.983398	9832.182617	374299.2813	2104.025653
1515.392578	45607.40234	7155.029785	9885.679688	372887.0313	2085.551182
1512.826172	45303.20313	7094.400879	9965.438477	371391.7813	2079.73172
1510.257813	45287.38281	7181.806641	9944.861328	369359	2068.604228
1507.689453	45622.94531	7251.63623	10049.85742	367781.9375	2060.350938
1505.121094	44813.01172	7223.141602	10036.07422	364912.625	2053.89214
1502.550781	44652.39063	7191.745117	9927.941406	362355.2813	2046.780948
1499.980469	45063.66797	7284.84375	9975.466797	361281.4688	2038.830209
1497.408203	44650.29688	7341.913086	9925.744141	357421.0938	2022.884827
1494.835938	44675.47656	7250.248535	9936.306641	355854.6875	2017.292042
1492.261719	44465.51953	7415.137207	9883.708984	354365.9063	2006.819421
1489.6875	44627.67578	7474.053711	9900.102539	353693.8438	2007.088804
1487.113281	44362.5	7474.672852	9937.844727	351749.2188	1994.959057
1484.539063	44247.93359	7482.085449	9767.839844	349598.9688	1994.398049
1481.960938	43939.35547	7645.725586	9861.87793	349616.8125	1992.029297
1479.384766	44039.36328	7517.265625	9966.527344	348368.6563	1993.594322
1476.806641	43898.79688	7718.61377	9875.216797	347416.9688	1985.9878
1474.228516	43638.09375	7706.547852	9857.640625	345049.4063	1982.389546
1471.648438	43438.59766	7759.423828	9964.128906	343355.875	1973.928955
1469.068359	43496.94531	7794.826172	9889.369141	340748.6875	1968.678462
1466.486328	43538.78125	7794.367188	9855.333984	340191.5938	1971.896979
1463.904297	43596.07813	7937.216309	9905.558594	338577.4063	1971.316543
1461.322266	43210.96094	7972.527344	9988.663086	337754.0625	1972.493503
1458.738281	43473.45703	8189.745117	9897.530273	337278.5625	1968.726294
1456.154297	43679.67969	8223.986328	9972.842773	336941.625	1965.503669
1453.570313	43301.64063	8266.910156	9734.769531	334507.2188	1964.074818
1450.984375	43279.60547	8338.80957	9904.829102	333463.5313	1962.187217
1448.396484	43150.29688	8343.973633	9878.583008	333645	1962.612704
1445.810547	43022.03125	8277.632813	9914.1875	331769.25	1954.110794
1443.220703	42739.28906	8236.446289	9886.019531	330086.8125	1954.006573
1440.632813	42744.46484	8248.392578	9995.949219	328744.2813	1946.905613
1438.042969	42758.31641	8325.97168	9863.516602	327809.9063	1951.891998
1435.451172	42390.97656	8129.433594	9820.910156	327218.625	1946.87518
1432.861328	42681.78906	8173.233887	9897.953125	325408.2188	1938.208347
1430.267578	42314.68359	8081.984863	9712.625977	324438.9375	1936.748282
1427.675781	42295.84375	7956.081543	9811.825195	323544.4063	1930.76439
1425.082031	42245.19922	8008.56543	9898.432617	321099.5625	1927.720689
1422.486328	42213.85547	8029.218262	9761.448242	321674.9375	1926.757704
1419.890625	41858.875	7873.583008	9924.109375	319753.1875	1932.986318
1417.294922	41846.91406	7891.373535	9868.083008	318829.2188	1928.21658
1414.697266	41630.87109	7933.218262	9811.12793	318249.4063	1921.153449
1412.099609	41299.47656	7821.058594	9803.285156	315916.5625	1913.913055
1409.501953	41304.99219	7904.264648	9774.280273	315702.5313	1917.539564
1406.902344	41247.02344	7865.274902	9928.022461	313736.2813	1916.021727
1404.302734	40889.11328	7882.072266	9771.12207	312844.1563	1911.660544
1401.701172	40702.50391	7766.217285	9813.274414	311528.6875	1911.483871
1399.099609	40827.3125	7873.354004	9800.630859	310678.0625	1908.063889
1396.496094	40635.05859	7929.512695	9824.493164	309563.75	1921.897057
1393.892578	40315.20313	7856.958984	9647.647461	308244.5938	1905.51396
1391.289063	39971.53906	7900.605957	9724.337891	305767.5313	1914.031824
1388.683594	39728.84766	7967.256348	9680.061523	305409.9375	1903.542295
1386.078125	40055.19531	7888.998047	9671.307617	304045.1563	1906.435974
1383.470703	39825.08203	7830.927246	9678.861328	303386.0938	1902.270276
1380.863281	39753.30078	7887.946289	9582.862305	301669.8438	1908.893012
1378.253906	39667.17578	8058.988281	9571.266602	300659.0938	1905.374866
1375.646484	39332.9375	7969.294922	9691.90332	299567.5	1905.038227
1373.035156	39365.76172	7968.739746	9643.878906	299473.6563	1902.715662
1370.425781	39590.07422	8036.17334	9578.645508	298449.0625	1905.121999
1367.8125	38815.79688	7902.529785	9596.734375	297310.1875	1898.245372
1365.201172	39014.29297	8017.789551	9692.326172	296128.875	1901.011664
1362.587891	38785.97266	8118.625977	9667.314453	294667	1898.157672
1359.974609	38776.80078	8054.895508	9559.110352	294739.0938	1891.122733
1357.359375	38750.42188	8043.789551	9563.791016	292815.6875	1891.593091
1354.744141	38278.64844	8051.805664	9681.250977	291409.5938	1889.383018
1352.126953	38476.96875	8071.28125	9537.786133	290295.7188	1889.398364
1349.509766	38094.39453	8066.862793	9559.657227	289205.4375	1893.967739
1346.892578	38123.61719	8005.150391	9517.535156	288341.125	1892.040503
1344.273438	38008.66797	8098.125	9491.666016	288096.8438	1889.98671
1341.652344	37717.23828	8155.72998	9521.161133	287066.3125	1884.741267
1339.033203	37951.64063	8187.539063	9447.603516	285931.4375	1879.769424
1336.412109	37718.57422	8038.116211	9451.34082	285386.625	1881.913414
1333.789063	37607.68359	8136.680176	9597.133789	283907.7188	1882.453562
1331.166016	37441.57031	8150.351563	9520.755859	283427.625	1890.22209
1328.542969	37324.15234	8305.03418	9498.735352	283229.8438	1907.671193
1325.917969	37041.05859	8207.193359	9397.666992	281551.875	1902.130197
1323.292969	37040.94922	8039.896973	9397.597656	280929.0313	1889.709576
1320.666016	36991.33594	8200.177734	9489.863281	279488.8125	1870.90404
1318.039063	36728.57422	8264.239258	9345.112305	278052.3125	1867.257471
1315.412109	36573.47656	8233.12207	9332.686523	276889.6563	1856.333018
1312.783203	36649.57031	8217.241211	9419.175781	276737.7188	1855.919923
1310.152344	36601.0625	8340.180664	9310.705078	275575.1875	1852.884719
1307.523438	36475.59375	8328.075195	9432.310547	275115.7188	1853.463963
1304.892578	35972.03125	8348.28125	9325.800781	274426.5313	1842.257403
1302.259766	36022.55078	8458.711914	9361.835938	273503.125	1846.473698
1299.626953	36099.61719	8422.836914	9330.426758	272133	1839.019357
1296.994141	35818.75391	8419.257813	9340.803711	270248.25	1833.102771
1294.359375	35788.58984	8469.773438	9304.672852	269759.5938	1830.787614
1291.724609	35856.15234	8460.487305	9274.255859	268706.75	1828.553089
1289.087891	35623.98047	8444.566406	9204.97168	267602.3438	1830.139089
1286.451172	35346.4375	8416.329102	9243.811523	265821.6563	1826.667084
1283.8125	35366.66797	8369.151367	9236.182617	264787	1815.016198
1281.173828	35277.91797	8361.797852	9271.195313	263884.6563	1826.098496
1278.535156	34819.80859	8397.071289	9170.735352	262905.1563	1822.575565
1275.894531	35160.21875	8525.120117	9212.371094	262424.2813	1824.69983
1273.253906	34949.48828	8424.951172	9189.610352	260231.2656	1821.703065
1270.611328	35054.94531	8411.905273	9232.158203	260498.0625	1829.531609
1267.96875	34403.52734	8489.685547	9194.265625	258381.6719	1832.016694
1265.326172	34542.17969	8374.485352	9261.370117	258047.3281	1831.241676
1262.681641	34334.71484	8479.642578	9236.725586	257496.6563	1840.136797
1260.037109	34447.77344	8434.455078	9204.53418	255890.5781	1847.828527
1257.390625	34411.47266	8491.338867	9238.499023	254912.8438	1860.416795
1254.744141	34071.04688	8434.838867	9350.835938	253465.2813	1870.59967
1252.095703	34348.35938	8506.791016	9227.043945	253647.3906	1881.788722
1249.447266	33853.35156	8372.914063	9276.067383	252261.4688	1901.765616
1246.798828	34134.32031	8504.288086	9418.479492	251710.5469	1917.621728
1244.148438	34095.31641	8327.098633	9526.84082	249726.9844	1936.970233
1241.496094	33815.85156	8385.785156	9423.888672	249237.4688	1960.465349
1238.845703	33992.84766	8468.003906	9507.665039	247693.2813	1978.304365
1236.193359	33914.32031	8449.324219	9565.94043	246842.7188	1993.583853
1233.539063	34293.73047	8551.253906	9659.979492	246439.25	2020.276623
1230.884766	34003.22656	8674.78125	9848.145508	245823.1094	2045.793994
1228.230469	33532.11719	8611.794922	9876.124023	244860.8281	2077.9941
1225.574219	33660.89453	8595.911133	10184.58301	244434.6875	2102.30286
1222.916016	33760.41016	8622.381836	10314.06055	243855.4063	2140.737071
1220.259766	33965.21484	8575.458008	10506.48047	243150.375	2171.069493
1217.601563	33767.39844	8646.114258	10675.26856	242524.75	2203.478932
1214.941406	33793.44531	8708.263672	10811.04492	241881.6094	2223.867585
1212.28125	33858	8833.339844	11117.77637	241566.8281	2244.462087
1209.621094	33757.15625	8754.458984	11141.52441	241313.2656	2255.244558
1206.958984	34004.81641	8818.389648	11392.54297	240332.875	2247.924632
1204.294922	33882.38281	8688.858398	11610.54004	239072.3281	2226.661988
1201.632813	34044.42188	8718.975586	11783.34375	238570.9375	2198.729661
1198.96875	34124.71875	8781.914063	12030.16406	237739.5313	2161.867333
1196.302734	34172.125	8739.75	12289.95898	237084.0156	2112.113852
1193.636719	34167.92578	8783.883789	12271.08301	235676.8125	2065.821042
1190.96875	34778.67578	8818.614258	12557.82031	235073.8438	2023.436289
1188.302734	34713.35938	8761.479492	12693.49512	234231.2969	1981.139494
1185.632813	35008.76172	8827.108398	12813.15625	232687.5625	1954.289914
1182.964844	35461.3125	8858.041016	12952.40723	233064.6563	1930.051808
1180.292969	35663.59375	8826.222656	13122.46387	232218.75	1918.579736
1177.623047	36350.5625	8944.179688	13072.46289	231222.6406	1898.722996
1174.951172	36694.64063	8884.280273	13152.54688	230210.2656	1904.028378
1172.277344	37183.48047	8879.605469	13053.92383	229160.1563	1905.098847
1169.605469	37706.59766	9044.183594	12982.47852	228307.9688	1923.350542
1166.929688	38652.83594	8970.283203	13069.05176	227934.875	1934.317052
1164.253906	39503.14844	8977.729492	13135.94434	226388.2813	1950.30987
1161.578125	40270.71094	9040.288086	13002.87695	225495.6094	1971.228524
1158.902344	41630.80078	9033.695313	13058.53711	224796.7813	1994.706979
1156.224609	42821.03906	9143.807617	12955.44922	223800.5469	2026.176224
1153.544922	43937.72656	9020.518555	12883.22266	223310.75	2049.812387
1150.865234	45531.39453	9232.261719	12990.17578	221826.6406	2077.006176
1148.185547	47107.25781	9373.915039	12833.10352	221048.5625	2117.299137
1145.503906	48899.36719	9237.611328	12758.18066	220427.5781	2147.019966
1142.822266	50816.16797	9381.96582	12714.0625	219235.5469	2191.715276
1140.138672	53023.41016	9286.744141	12766.87988	218715.1719	2233.816773
1137.455078	55273.96094	9360.191406	12585.84766	216699.9688	2289.310034
1134.771484	58038.97656	9477.359375	12649.84277	217165.875	2344.894336
1132.085938	60679.34766	9506.941406	12511.78125	215909.2188	2428.656948
1129.398438	64021.60156	9579.313477	12714.41992	215416.4531	2503.943673
1126.710938	67724.5625	9570.695313	12805.28711	214757.4219	2607.591453
1124.023438	71385.17188	9727.634766	12815.17871	214127.6094	2712.493392
1121.333984	75189.42188	9776.618164	13099.34082	213513.9531	2837.002351
1118.644531	79488.5	9802.333008	13305.24609	212146.875	2950.313878
1115.955078	83966.03906	9784.356445	13501.72656	211419.875	3095.602473
1113.263672	88323.67969	9833.271484	13478.86523	210274.3906	3219.273268
1110.570313	93488.25781	9911.867188	13866.44824	210257.8125	3359.989721
1107.876953	98720.09375	9940.28418	14187.875	209035.375	3493.438004
1105.183594	103686.8984	9988.168945	14564.77441	208310.1406	3638.300367
1102.488281	108414.8984	9998.914063	14760.53125	207708.7188	3788.20373
1099.792969	113120.4063	10033.7627	14894.95313	206853.5313	3923.319556
1097.095703	117396.4297	10203.94727	15329.66895	206389.1719	4068.088964
1094.398438	120396.2891	9952.314453	15463.81934	205979.75	4218.493457
1091.701172	123119.0391	10172.44727	15911.9707	205628	4340.709081
1089.001953	124603.5313	10199.7793	16086.59961	205143.9688	4491.038617
1086.300781	125319.4688	10242.83398	16183.33691	203983.375	4628.016983
1083.601563	123497.7734	10340.47266	16305.00195	202995.6563	4751.743616
1080.898438	121308.0078	10342.73535	16643.11523	202151.0156	4904.45883
1078.197266	117649.7188	10341.29492	16711.82422	201017.3594	5061.47383
1075.492188	114060.3203	10276.96875	16678.76172	201357.5	5208.312104
1072.789063	108585.4453	10429.00977	16765.89844	200075.8906	5349.605171
1070.083984	103723.9922	10509.79004	16826.17578	199326.4688	5486.050929
1067.376953	99239.77344	10501.82324	16847.60938	198689.2656	5598.019691
1064.669922	94917.25	10509.56152	16749.88672	197815.0781	5652.95921
1061.962891	91074.80469	10723.18848	17007.68359	197112.2344	5659.597145
1059.253906	87626.125	10755.76856	16648.76172	195724.9375	5587.726432
1056.544922	84903.02344	10835.38379	16684.05273	195112.625	5485.507068
1053.833984	82286.79688	10981.36035	16694.41406	194438.875	5367.04545
1051.123047	79518.22656	11010.13281	16747.18359	193877.0938	5222.151065
1048.412109	77363.49219	11300.68457	16486.5	192957.0469	5060.040749
1045.699219	74914.3125	11517.3252	16272.05762	191890.125	4927.1518
1042.984375	72823.19531	11963.21484	16141.58008	191029.2656	4793.671056
1040.269531	70761.94531	12468.67969	16160.37207	191088.9375	4646.539946
1037.554688	69608.82031	13065.88477	15925.97559	189558.6094	4510.711399
1034.837891	67190.03906	13920.40527	15709.21289	189071.0469	4356.474976
1032.121094	65652.35156	15224.29004	15642.55273	188366.625	4219.192624
1029.402344	64431.10547	16458.35547	15357.03223	187458.4375	4072.240713
1026.683594	63555.42578	17870.00977	15181.10645	186854.2188	3945.370369
1023.962891	62467.96875	19323.03906	15035.62305	185565.5781	3830.669335
1021.242188	62828.41016	20593.19727	14982.11719	185452.9688	3729.897059
1018.521484	63025.10156	22003.08398	14890.06152	183927.625	3647.995676
1015.798828	63275.83984	23407.47461	14731.0293	183252.6406	3572.257413
1013.076172	63449.29297	24966.10742	14634.51758	182782.7656	3522.449608
1010.351563	63992.45313	26459.49609	14641.76563	182155.3125	3473.633154
1007.626953	64625.16016	28211.55664	14521.48731	181871.3281	3433.684372
1004.900391	65035.51172	29779.06445	14452.6416	180761.2031	3397.685464
1002.173828	64896.42188	32010.26758	14613.04004	181125.0469	3358.951699
999.445313	65453.96094	34286.77734	14649.60352	180231.1875	3313.975215
996.716797	65201.1875	37960.93359	14736.5332	180838.625	3269.163605
993.988281	64448.47266	42933.375	14729.98047	179630.2813	3226.937664
991.257813	63560.71094	50835.47656	14719.76563	179793.3906	3160.371482
988.525391	62497.76172	60299.60938	14725.11621	178681.2813	3111.876294
985.792969	60630.24219	68770.30469	14799.08984	179201.3906	3071.121874
983.060547	59114.25781	72807.11719	14900.45606	179734.8594	3029.416862
980.326172	58281.42578	74502.99219	15000.83984	180563.3281	3001.52275
977.591797	57837.64063	74452.57813	15012.48242	184297.375	2975.290133
974.857422	57565.02344	74991.64844	15001.26758	192538.9688	2967.378477
972.121094	57541.06641	74212.03125	14978.18164	213301.3594	2968.166116
969.382813	56965.48828	73732.46875	14941.4082	244389.75	2984.273992
966.644531	56678.77734	73808.3125	15114.64453	296395.8438	3016.786084
963.90625	55386.44141	72963.15625	15121.65527	332135.1875	3044.160256
961.166016	53554.77734	72751.75781	15139.6084	295794.9063	3041.221899
958.423828	51703.30469	72219.40625	15196.76758	232627.9375	3054.665518
955.683594	49997.08203	71134.8125	15239.29883	199717.5156	3028.896314
952.939453	47952.85547	70820.25	15259.01074	186295.75	3003.79169
950.197266	45883.50781	70330.91406	15158.42481	180639.0469	2975.024196
947.453125	44141.60547	71081.70313	14946.7666	177782.5313	2923.747581
944.707031	42354.36719	71518.73438	15059.43262	176724.5313	2863.463996
941.960938	41054.40625	72944.13281	15069.15332	175502.4219	2799.805029
939.212891	39374.86719	68024.39844	14939.625	173415.5938	2746.732366
936.464844	38224.98047	57757.32031	15097.66602	172797.5313	2701.904207
933.716797	37530.5625	47937.94922	15021.86621	172218.9531	2685.001617
930.966797	36144.69922	39442.33594	15077.94434	171586.1719	2701.507849
928.216797	35206.89453	31555.70313	14834.04883	170505.6719	2725.107781
925.464844	34129.76563	26201.93164	14887.4209	169701.1563	2754.993571
922.712891	33260.41797	23220.52734	14940.75586	168540.1563	2763.811362
919.958984	32026.59961	22060.74609	14928.67578	168416.8281	2746.653765
917.205078	31208.4043	21232.12695	14952.91113	167975.8438	2701.920085
914.451172	30081.29492	20540.15625	14860.97656	166796.4688	2603.708204
911.695313	29595.34766	20296.76367	14793.5918	166006.0938	2489.589393
908.9375	29130.56445	19998.20508	14768.86914	165118.25	2343.420328
906.179688	28903.59375	19850.32813	14738.7207	164550.0469	2196.830127
903.421875	28990.33008	19904.64258	14763.87109	163738.4063	2074.430996
900.662109	29268.16602	19564.81445	14631.36523	163356.7031	1985.674499
897.902344	29793.9707	19527.70508	14850.34277	162881.9219	1913.129808
895.140625	30486.02148	19518.68359	14560.35254	161901.2969	1897.613554
892.378906	31449.14648	19422.77344	14741.19336	160982.8438	1941.508831
889.615234	32442.40625	19410.16602	14859.4834	161479.1406	2027.792712
886.851563	33735.31641	19103.5918	14901.7168	160211.3125	2146.085689
884.085938	35005.68359	19285.49805	14994.55566	160079.0625	2272.522428
881.320313	35982.35156	18918.5918	15147.89453	158694.9375	2383.013431
878.554688	36980.07031	19030.85352	15131.25	157890	2462.795621
875.787109	37550.76172	19084.32031	15225.72363	157304.1719	2522.9307
873.017578	37799.59766	18956.23438	15309.29688	157212.6563	2574.812043
870.248047	38191.80078	19048.50391	15502.9502	156658.9688	2649.698674
867.478516	38014.29297	18789.64648	15590.88672	156110.1094	2731.183284
864.707031	37880.19531	18624.7793	15456.83008	155568.8125	2833.164425
861.935547	38169.16016	18698.11719	15712.46875	155599.6094	2951.263656
859.162109	38413.75391	18806.56641	15733.52734	155761.1094	3033.507203
856.388672	38651.87109	18598.58203	15599.54688	155167.1875	3071.114014
853.613281	38992.54297	18607.875	15802.625	155305.2344	3080.827792
850.837891	39535.64453	18596.44141	15891.17871	155654.8281	3048.884567
848.0625	39896.50391	18532.78711	15910.33984	154514.875	3007.860373
845.285156	40047.39844	18546.58398	15915.98438	152560.1406	2969.197887
842.505859	40692.19141	18581.06445	15834.33887	151464.1719	2923.627635
839.726563	41447.20313	18729.76367	15877.7793	150709.8281	2900.288031
836.947266	42397.75391	18949.40625	15780.00781	149102.5469	2890.033249
834.166016	43262.28125	19089.79297	15732.6377	148218.1406	2891.455327
831.384766	44059.73828	19644.37891	15796.73047	146878.6719	2869.671724
828.601563	44436.23047	19721.55469	15488.85156	145368.4531	2887.192397
825.818359	44756.79297	20112.11328	15678.70801	144786.9063	2896.219047
823.033203	44316.71094	20173.81836	15463.53516	143884.3125	2902.859569
820.248047	43009.02344	20173.55078	15407.35547	143546.7969	2924.31071
817.460938	42228.83984	20044.97461	15386.20215	143528.8906	2934.434449
814.673828	41707.46484	20120.08398	15417.97754	142833.7969	2972.335286
811.884766	41047.44922	19777.30469	15430.89941	142712.9531	2986.986677
809.095703	40718.59766	19675.86328	15316.53223	142759.7969	3009.532153
806.306641	40880.98828	19526.09766	15296.32031	145711.5469	3008.080609
803.515625	41112.23438	19121.13086	15259.99609	151384.4375	3016.516103
800.722656	40998.57422	18861.49219	15220.11133	167067.5156	3001.523211
797.929688	40767.71484	18416.71484	15327.05664	184691.8281	2996.860141
795.136719	40260.48047	18379.40234	15219.15918	185492.625	2995.250309
792.341797	39870.75781	18121.14258	15355.55176	187419.1406	2995.678059
789.546875	39311.37109	17756.625	15082.26563	198154.9531	2988.192965
786.75	38547.60938	17655.18555	15047.85449	202667.7344	2985.673118
783.953125	38531.48438	17648.54297	15169.86231	202537.4063	2978.070574
781.154297	38243.76563	17282.73828	15095.23535	252137.5938	2967.597289
778.355469	38476.91797	17122.59375	15005.4707	430325.0313	2944.228642
775.554688	38857.23047	17173.26563	15120.22266	492855.875	2920.134945
772.753906	39293.52344	17040.92578	15091.19727	338654.0313	2899.601197
769.953125	39990.05859	17040.72461	15325.40332	211415.7969	2874.17289
767.150391	40581.77734	16693.53906	15278.48535	174090.3594	2864.775798
764.345703	41293.47656	16673.83008	15392.98828	159958.5	2863.748663
761.541016	42261.42578	16723.66016	15614.38086	149870.2344	2867.709317
758.736328	43387.35156	16671.86719	15735.82324	144344.7031	2868.615539
755.929688	44546.38281	16616.54102	15805.5166	140722.8125	2877.919992
753.123047	45383.17578	16498.02148	15943.73145	138959.0938	2886.733838
750.314453	46612.00391	16477.50391	16099.6582	136979.2969	2900.161222
747.503906	48255.62109	16465.89453	16247.47168	135690.4531	2921.750553
744.695313	49951.53516	16449.84375	16231.49121	134117.75	2949.195575
741.882813	51374.19141	16573.43164	16325.79785	132757.7188	2994.639899
739.072266	53433.36719	16624.91797	16307.12988	132200.4844	3033.953122
736.257813	55708.04688	16730.58594	16305.35742	131573.375	3086.721276
733.445313	58146.48438	16781.0957	16180.08496	131434.4219	3158.936455
730.630859	59529.04297	16795.15234	16208.54785	132208.6094	3222.610732
727.814453	60702.03125	16889.99609	16205.91406	132192.0313	3308.621781
724.998047	60368.86328	16671.44336	16333.75684	131572.75	3379.303962
722.179688	58960.46875	17085.70313	16050.68555	129275.9375	3445.653717
719.361328	57763.21484	17023.34375	16071.15918	127692.8906	3501.404509
716.542969	56272.33594	16906.04492	15981.66211	126415.8984	3553.597122
713.722656	55642.27344	17090.2168	16026.96094	125411.8516	3562.546458
710.900391	54939.95313	17290.2168	16079.31543	124029.1719	3554.767245
708.080078	53525.84375	17583.10156	15973.06445	123527.9219	3538.312859
705.255859	51440.5	17820	16096.24316	123056.2031	3521.316437
702.431641	48959.90234	17985.91406	15786.43457	122170.4609	3513.727902
699.607422	46547.29688	18511.91992	15992.77832	122276.4766	3511.986539
696.78125	44186.69141	18851.78516	15795.55859	120990.7578	3508.931595
693.955078	42358.27344	19375.38672	15802.76563	120154.2578	3505.217898
691.126953	40914.75781	20085.19922	15733.92969	119633.9219	3498.528751
688.298828	39330.76953	20562.9707	15643.92481	118575.6406	3506.944804
685.46875	37662.99219	21076.65234	15394.05371	117609.9297	3479.401523
682.638672	36172.95313	21339.14063	15542.69336	116959.2734	3437.187906
679.806641	34917.87109	21869.88477	15426.3418	116193.3516	3368.116755
676.974609	33433.22656	22235.21094	15139.70801	114914.1953	3269.238512
674.142578	32631.63867	23065.32422	15223.86231	114527.9531	3147.254997
671.308594	32017.57422	23438.83203	15142.12402	114343.0625	3019.278795
668.472656	31373.92773	23591.63281	15059.55566	113526.0156	2904.258737
665.636719	31204.95508	23560.08789	15142.76465	113412.0625	2797.785822
662.798828	30838.69336	23347.02148	15006.48926	112460.9922	2721.4285
659.960938	31136.89648	23642.40625	15021.82422	112346.5391	2672.395328
657.123047	30622.05664	23623.19141	15029.21973	111490.6328	2629.246059
654.283203	30161.25195	23757.17383	14857.89356	110688.0938	2618.301543
651.443359	30087.97656	23854.09961	15106.47363	110339.3047	2599.47167
648.601563	29503.58984	24193.78516	15086.55371	110033.8281	2602.696503
645.757813	29437.60547	24856.9043	15122.05176	109881.5703	2578.721055
642.914063	28990.08398	25639.16016	14970.25293	109303.8594	2556.958259
640.070313	28534.94141	26200.2832	15100.68457	109264.4063	2530.505866
637.224609	28404.30664	26189.91016	15060.57324	109188.9375	2481.087665
634.378906	28169.23047	25811.50586	15037.17481	108582.1016	2432.448152
631.53125	28222.30664	26278.05078	15062.08203	108784.3359	2379.606843
628.683594	27782.03906	27249.88867	14962.32813	108350.9219	2336.693407
625.833984	27812.38281	28518.55273	14921.42773	108559.2031	2298.44192
622.984375	27889.19336	30993.41016	14935.81445	108317.3281	2276.000416
620.132813	28100.98828	33066.76172	14794.10156	108136.1094	2261.663638
617.28125	27781.41797	34610.13281	14577.0918	108197.8047	2250.711265
614.429688	27992.22461	33200.97656	14662.55176	108764.2031	2250.451504
611.574219	27888.39453	29445.80273	14593.77246	109605.2891	2254.270104
608.720703	28003.56055	27519.05859	14483	109657.625	2244.147826
605.865234	27938.30469	26546.9707	14739.98828	108662	2243.327242
603.007813	28096.25391	26507.5918	14810.39453	107407.9609	2247.12283
600.150391	28157.85938	26497.97852	14838.75879	106177.4766	2249.550859
597.291016	28157.32227	26611.68945	14752.53027	105490.9063	2269.985874
594.431641	28092.95703	26988.49023	15174.32324	105116.8984	2287.730179
591.572266	28308.3125	27505.75586	15353.73535	104572.6875	2304.601968
588.710938	28663.31641	28368.67773	15309.35352	104403.6406	2318.014723
585.847656	28651.24023	28928.8125	15383.78516	102954.2344	2328.402072
582.984375	28615.5918	30015.08984	15487.85254	102946.4531	2330.627368
580.121094	28856.66016	30913.85156	15652.0752	102373.0547	2330.136191
577.255859	28832.30078	32153.19727	15805.7168	102012.9297	2313.150788
574.390625	28632.625	33642.07031	15786.54199	101006.6563	2301.064093
571.523438	28903.95313	35617.41016	15977.52832	100639.3281	2288.887933
568.654297	28808.10938	37628.92188	15961.79102	100495.3906	2271.971315
565.787109	28686.17969	40010.33203	16071.5459	100179.8594	2245.412134
562.916016	28931.07422	42494.70313	16086.27246	99231.20313	2217.212859
560.044922	28777.82617	45492.97656	16168.91309	99530.21094	2199.932558
557.173828	29034.70508	49366.79688	16272.38867	99066.39063	2180.392683
554.300781	29460.24023	54033.49609	16337.50195	99049.3125	2159.032636
551.427734	29970.74805	59547.95703	16373.85938	98665.10156	2141.428944
548.552734	30866.1875	66672.07813	16491.07227	98194.14844	2129.946436
545.677734	32180.95117	75284.28125	16309.12988	97661.77344	2113.778064
542.800781	34719.42188	86539.89844	16267.2334	97571.24219	2115.40917
539.923828	39862.69141	102015.875	16398.25781	96889.07813	2115.292453
537.044922	50129.54688	123938.4844	16196.54199	96547.82031	2134.678761
534.166016	63334.71875	158324.5313	16183.36816	96074.80469	2178.396764
531.285156	63286.84766	216366.4688	16116.38672	95570.82813	2263.215223
528.404297	50357.44922	328903.9688	16026.01856	94754.8125	2388.347585
525.521484	39639.77344	576357.9375	15993.82422	94351.32813	2435.086232
522.638672	34353.78906	1030985.25	15812.50586	93511.94531	2338.546855
519.753906	32060.94922	1273532.5	16006.63672	93480.97656	2174.646778
516.869141	30606.68945	780650.125	15801.16602	93076.53906	2033.893226
513.984375	29771.88672	354904.5938	15787.26953	92169.92969	1939.668325
511.095703	29316.05664	173760.7344	16048.75195	92096.96094	1867.658007
508.208984	28771.35742	98317.19531	16259.85059	91550.5	1816.036979
505.320313	28365.47656	61772.41797	16454.36523	91064.10156	1766.763829
502.429688	28584.45703	42511.77344	16380.56738	90588.38281	1719.700543
499.539063	28601.78906	31842.99023	16657.92773	90068.00781	1669.348749
496.646484	29413.59961	25466.80859	16817.52734	89551.41406	1624.095902
493.753906	30855.75781	21201.04102	17111.83984	89178.60938	1585.317414
490.861328	34526.80078	18793.04102	17058.64648	88686.8125	1580.216432
487.966797	41783.91797	16664.74023	17060.75977	87972.50781	1639.156647
485.070313	55868.95703	14912.56152	17139.70898	88156.57031	1793.83608
482.173828	73868.23438	13613.8125	17285.06055	87637.07813	2002.367108
479.277344	77904.0625	12682.62305	17099.85938	87084.26563	2069.349752
476.378906	64132.29688	11895.22949	17025.18164	86848.35156	1896.002486
473.478516	49378.96484	11392.90039	17242.8457	86696.21875	1692.161596
470.578125	39632.10156	10970.20215	17094.90039	86072.6875	1567.620338
467.675781	34447.28125	10396.99121	17070.26563	85944.14844	1507.029761
464.773438	31017.06055	9950.782227	16805.32227	85415.14063	1492.125081
461.871094	28668.05273	9627.145508	16687.79883	85405.70313	1480.662426
458.966797	27224.4375	9445.756836	16489.43359	84832.4375	1482.364771
456.0625	26779.11133	9943.447266	16434.9043	84862.76563	1482.393786
453.15625	26195.58008	10756.51563	16355.46289	84386.375	1485.37658
450.248047	26403.57617	11618.05957	16349.16504	84243.95313	1497.817433
447.339844	26207.39258	12292.47949	16081.53516	83532.51563	1519.723375
444.431641	25984.69336	13128.87305	16147.51465	83451.45313	1553.584278
441.521484	25877.25781	13874.50293	15786.48438	83590.35938	1605.853308
438.609375	25947.6582	14945.98535	15875.7002	82951.09375	1648.017338
435.697266	25634.25391	16119.77539	15790.57715	82188.60938	1683.177125
432.785156	25563.93164	16214.82617	15725.24707	82261.67188	1706.781933
429.871094	25399.2793	16187.98145	15588.74902	82140.78125	1709.752266
426.955078	25537.48438	16194.60059	15677.90234	81883.59375	1716.431
424.039063	25540.98633	16271.51856	15680.39941	81545.10938	1718.703234
421.123047	25616.47656	16052.68262	15792.59863	81088.5625	1728.159719
418.205078	25590.81055	16206.70508	15853.31348	80961.3125	1729.298686
415.287109	25428.11523	16274.11328	15894.28516	80627.71875	1737.829761
412.367188	25322.89258	16458.7793	16043.11133	80617.98438	1742.992218
409.445313	25063.66602	16537.17969	16060.87695	80348.03906	1751.332718
406.523438	24935.52148	16753.29102	16432.01563	80085.10938	1754.576302
403.601563	24527.75391	17050.51563	16382.91504	79725.67969	1757.848977
400.677734	24316.07031	17082.45898	16734.88086	79219.40625	1759.109081
397.753906	24125.89258	17426.38672	16795.97656	78993.82813	1759.041611
394.828125	23848.67578	17664.11914	17022.80469	78874.35156	1763.024342
391.900391	23809.97266	18068.26953	17191.39258	79110.30469	1770.536502
388.972656	23624.41211	18238.16211	17386.33789	78428.09375	1764.1672
386.044922	23711.28906	18545.38086	17508.58789	78211.57031	1777.601901
383.115234	23391.04297	18881.40625	17400.3418	78321.16406	1777.848562
380.185547	23631.48828	19323.84375	17563.44922	77518.72656	1790.255038
377.253906	23484.5957	19687.52344	17626.66602	77106.53906	1795.244529
374.320313	23347.17578	19946.0957	17363.32227	77140.48438	1799.227113
371.386719	23344.49805	20280.3418	17315.76758	76943.4375	1811.446862
368.453125	23623.8125	20684.22266	17363.66016	76899.00781	1815.260968
365.517578	23936.1543	20897.9043	17220.74414	76366.59375	1812.936409
362.580078	24745.49023	21380.48633	17266.92969	76399.83594	1815.058279
359.644531	25280.22852	21607.4043	17045.83398	75845.79688	1819.697629
356.705078	26110.68945	21973.70508	17058.85938	75971.05469	1817.434004
353.765625	26838.5293	22292.97656	17092.28516	75262.70313	1819.334308
350.826172	27440.04102	22807.59375	16883.36719	75136.38281	1810.207066
347.884766	28599.57227	23021.82031	16791.87891	74680.34375	1818.285958
344.941406	29139.75781	23467.01563	17011.43359	74499.89844	1835.025899
341.998047	30495.8457	23830.36914	17104.27734	74279.63281	1851.266805
339.054688	31552.13672	24335.2793	17031.48047	74044.22656	1872.670328
336.109375	32396.35938	24662.43945	17223.5625	73791.99219	1886.940383
333.162109	33503.05859	25316.07422	17178.77148	73558.57813	1916.103358
330.214844	34520.79688	26208.48242	17274.81836	72597.5	1934.659805
327.267578	35376.73047	26548.24414	17453.90039	72495.20313	1943.163371
324.318359	36155.79688	27190.4082	17611.66797	72365	1960.474692
321.369141	36309.79297	28105.85938	17845.5918	72166.22656	1978.391581
318.417969	36280.70313	28639.47656	17944.66602	71447.4375	1990.299505
315.464844	35834.13281	29891.71875	18438.29883	71219.4375	2019.317709
312.511719	35229.55078	30989.04297	18799.53516	71330.21094	2049.25017
309.558594	34082.05859	33236.58984	19108.05664	70677.55469	2082.356857
306.603516	33166.28516	36245.73047	19329.23242	70265.58594	2115.208758
303.646484	32596.16602	38892.57031	19798.05078	70019.64063	2163.548631
300.689453	31840.43164	37352.67188	20104.22852	69700.29688	2190.997661
297.730469	31790.89453	34927.22266	20624.86719	69651.60156	2223.738628
294.771484	31280.93555	33053.41016	20892.53906	69357.07813	2267.23977
291.8125	31370.96289	32028.82031	21018.13867	69240.10156	2302.756961
288.851563	31079.30273	31172.93359	21062.59961	68943.35156	2333.070581
285.888672	30915.28125	30661.13477	21230.25391	68574.21094	2358.461646
282.925781	31312.44336	30048.42578	21287.26367	68510.73438	2394.401418
279.962891	31626.67578	29891.5918	21288.56445	67899.89844	2427.602537
276.996094	32356.37305	29513.94727	21501.49609	67670.5625	2471.592842
274.03125	32912.78516	29011.80078	21665.39258	67591.40625	2526.778247
271.064453	33194.97656	28980.16602	21747.44531	67749.90625	2603.091885
268.095703	33021.28125	28887.90234	21814.27734	68924.125	2688.479801
265.126953	32666.66016	28770.43164	21522.35742	68905.22656	2777.667767
262.15625	32073.21484	28639.57031	21457.05859	67899.78906	2896.845232
259.185547	31796.55273	28504.58203	21401.05664	66881.5625	2992.146615
256.214844	31125.55664	28566.52344	21156.66406	66592.47656	3090.286577
253.240234	30181.71289	28567.87305	21096.58984	66325.42969	3165.346579
250.267578	29415.02734	28386.79688	20733.92969	66470.46094	3214.491584
247.291016	28529.52344	28463.83008	20701.76172	66390.17188	3215.765657
244.316406	27659.73047	28301.38281	20650.29102	66421.65625	3165.386339
241.339844	26482.32031	28455.64648	20540.06836	66912.46875	3099.533752
238.361328	25683.4668	28446.09375	20152.04297	66487.89063	2969.285461
235.382813	24563.72852	28770.56055	19848.19727	66323.75	2845.399803
232.402344	23668.73242	29025.16992	19705.62695	66185.71094	2709.051877
229.421875	22963.86914	28926.52539	19283.04102	65914.40625	2553.802149
226.439453	21889.75586	28361.79883	19317.64648	66265.34375	2431.567992
223.455078	21275.63086	26691.14844	18815.01172	66103.13281	2308.770234
220.472656	20601.5918	26065.54492	18863.98828	66373.32031	2204.875234
217.486328	19974.9043	25810.55273	18951.45313	66249.6875	2121.875374
214.501953	19538.68945	25604.28711	19308.44922	66036.53906	2045.604955
211.513672	19003.16602	25649.25195	19790.74609	66627	2000.027902
208.525391	18535.77148	25794.58594	20050.99609	74549.71094	1962.53388
205.537109	18249.34961	25887.12305	20178.08008	92205.25781	1928.952649
202.546875	17920.47461	25961.20117	20511.59766	89500.36719	1911.464156
199.556641	17647.82031	25908.17383	20425.29883	75964.02344	1889.125589
196.564453	17399.57617	26259.59766	20088.38867	71125.69531	1868.07981
193.570313	17273.44727	26448.73242	19630.58789	70309.94531	1849.697081
190.576172	17135.71094	26804.74023	19411.06445	69322.72656	1821.80525
187.582031	16817.76563	26926.7793	19286.00781	69273.53906	1784.473237
184.585938	16643.55469	27246.49805	19281.19141	69318.66406	1738.518143
181.587891	16676.32813	27392.49023	18848.45508	69672.38281	1681.172371
178.589844	16412.21875	27777.70508	18477.71289	69693.97656	1617.224293
175.591797	16505.89453	28272.69336	18658.22266	70307.39063	1544.678398
172.591797	16320.34668	28626.51367	18702.77539	70722.89063	1480.465566
169.589844	16240.71582	29000.08398	17827.63477	70570.8125	1409.33252
166.587891	16296.04199	29546.61328	16665.78125	70459.625	1345.7168
163.585938	16339.67285	29980.38672	15268.28711	70408.4375	1279.436591
160.580078	16092.83887	30120.09375	14121.38672	69982.79688	1221.018379
157.576172	16191.41016	30758.02734	13196.54395	70034.10938	1164.698111
154.570313	16147.70508	31457.06836	12571.70801	70824.69531	1126.217266
151.5625	16101.53223	31503.8418	11912.37402	72311.40625	1083.12005
148.554688	16261.49316	32327.64648	11247.66406	72146.60938	1044.30061
145.544922	16330.78809	32727.17969	10727.95801	70429.17188	1007.844678
142.535156	16295.39063	32859.83984	10428.68457	68345.79688	977.5379619
139.523438	16427.7207	33413.33984	9961.074219	66823.38281	958.6149627
136.511719	16676.98047	33675.14453	9684.666016	66046.45313	935.7868824
133.498047	16619.09375	34013.92969	9557.783203	65221.91406	905.9957623
130.484375	16714.67969	34218.94922	9358.827148	64006.45313	888.9611357